File: remote_trans/data/nanoindenter/0828-1/data/Data_2025-08-06,11h17m57s/2025-07-22_16-23-58_1_743.txt
2025-07-22, 16:23:58, 1
Index	Phase	Displacement	Time	Pos X	Pos Y	Pos Z	Rot A	Rot B	Piezo Z	Force A	Force B	Gripper	Voltage A	Voltage B	Temperature	Amplitude force	Amplitude pos	Stiffness	Phase shift	Phase excitation	Force A raw	Displacement raw	HMax	HMax raw	Real Force	Real Stiffness	Contact Depth	Area	Hardness	Reduced Mod.
[#]	[#]	[um]	[s]	[um]	[um]	[um]	[m°]	[m°]	[um]	[uN]	[uN]	[V]	[V]	[V]	[°C]	[uN]	[um]	[N/m]	[°]	[°]	[uN]	[um]	[um]	[um]	[uN]	[N/m]	[um]	[um^2]	[MPa]	[MPa]
743	1.000000	0.002987	7.37232e+06	-39939.1	1005.82	-29792	0.000000	0.000000	6.002769	0.067230	NaN	0.000000	0.001538	0.001752	28.0837	0.069564	0.001024	67.9268	-128.278	-179.8	0.081437	0.001736	-1.070689	-1.071940	0.067230	67.9268	-1.071431	-2.072138E+14	-3.244492E-16	NaN
743	1.000000	0.042881	7.37232e+06	-39939.1	1005.82	-29792	0.000000	0.000000	6.042664	0.074272	NaN	0.000000	0.001567	0.001761	28.0838	0.055645	0.001930	28.8279	134.785	174.982	0.021812	0.041562	-1.030795	-1.032114	0.074272	28.8279	-1.032727	-6.254085E+13	-1.187570E-15	NaN
743	1.000000	0.082908	7.37232e+06	-39939.1	1005.82	-29792	0.000000	0.000000	6.082691	0.085076	NaN	0.000000	0.001622	0.001744	28.0835	0.028090	0.001921	14.6219	-114.269	175.295	0.108961	0.081604	-0.990768	-0.992072	0.085076	14.6219	-0.995132	-1.950832E+13	-4.361001E-15	NaN
743	1.000000	0.122942	7.37232e+06	-39939.1	1005.82	-29792	0.000000	0.000000	6.122723	0.042283	NaN	0.000000	0.001682	0.001704	28.0838	0.072046	0.002056	35.0369	-141.939	176.965	0.082267	0.121607	-0.950735	-0.952069	0.042283	35.0369	-0.951640	-5.059909E+12	-8.356541E-15	NaN
743	1.000000	0.162950	7.37232e+06	-39939.1	1005.82	-29792	0.000000	0.000000	6.162731	0.056416	NaN	0.000000	0.001654	0.001747	28.0831	0.076362	0.002075	36.8061	51.051	175.669	0.025339	0.161582	-0.910726	-0.912094	0.056416	36.8061	-0.911876	-1.470623E+12	-3.836190E-14	NaN
743	1.000000	0.202976	7.37232e+06	-39939.1	1005.82	-29792	0.000000	0.000000	6.202758	0.073879	NaN	0.000000	0.001589	0.001698	28.0823	0.031086	0.001992	15.608	-13.1756	176.296	0.028128	0.201630	-0.870701	-0.872046	0.073879	15.608	-0.874251	-4.559816E+11	-1.620220E-13	NaN
743	1.000000	0.242976	7.37232e+06	-39939.1	1005.82	-29792	0.000000	0.000000	6.242758	0.069348	NaN	0.000000	0.001540	0.001677	28.0825	0.086331	0.002041	42.2997	172.81	172.651	0.017258	0.241697	-0.830700	-0.831979	0.069348	42.2997	-0.831930	-1.218813E+11	-5.689822E-13	NaN
743	1.000000	0.282985	7.37232e+06	-39939.1	1005.82	-29792	0.000000	0.000000	6.282766	0.041140	NaN	0.000000	0.001593	0.001694	28.084	0.066964	0.002106	31.8031	23.0181	177.011	0.070303	0.281653	-0.790691	-0.792024	0.041140	31.8031	-0.791661	-3.464536E+10	-1.187449E-12	NaN
743	1.000000	0.323018	7.37232e+06	-39939.1	1005.82	-29792	0.000000	0.000000	6.322801	0.078305	NaN	0.000000	0.001544	0.001712	28.0839	0.020054	0.001977	10.1441	179.368	172.76	0.084783	0.321728	-0.750658	-0.751948	0.078305	10.1441	-0.756448	-1.150721E+10	-6.804896E-12	NaN
743	1.000000	0.363010	7.37232e+06	-39939.1	1005.82	-29792	0.000000	0.000000	6.362789	-0.010858	NaN	0.000000	0.001566	0.001687	28.084	0.034211	0.001862	18.3765	17.1786	173.999	-0.020325	0.361684	-0.710666	-0.711992	-0.010858	18.3765	-0.710223	-2.698280E+9	4.024225E-12	NaN
743	1.000000	0.403051	7.37232e+06	-39939.1	1005.82	-29792	0.000000	0.000000	6.402832	0.050152	NaN	0.000000	0.001562	0.001720	28.084	0.034010	0.001913	17.776	132.993	175.079	0.098094	0.401737	-0.670625	-0.671939	0.050152	17.776	-0.672741	-8.296743E+8	-6.044763E-11	NaN
743	1.000000	0.443065	7.37232e+06	-39939.1	1005.82	-29792	0.000000	0.000000	6.442842	-0.051481	NaN	0.000000	0.001563	0.001712	28.0824	0.042615	0.001916	22.2418	138.844	173.441	0.029312	0.441764	-0.630611	-0.631912	-0.051481	22.2418	-0.628875	-2.077677E+8	2.477834E-10	NaN
743	1.000000	0.483076	7.37232e+06	-39939.1	1005.82	-29792	0.000000	0.000000	6.482855	6.322204E-5	NaN	0.000000	0.001565	0.001699	28.0828	0.053764	0.001947	27.613	125.669	173.556	-0.047855	0.481764	-0.590600	-0.591913	6.322204E-5	27.613	-0.590602	-6.179668E+7	-1.023065E-12	NaN
743	1.000000	0.523098	7.37232e+06	-39939.1	1005.82	-29792	0.000000	0.000000	6.522880	0.073792	NaN	0.000000	0.001572	0.001750	28.0824	0.054101	0.001807	29.9451	61.0597	174.974	0.161627	0.521793	-0.550578	-0.551883	0.073792	29.9451	-0.552426	-1.834678E+7	-4.022060E-9	NaN
743	1.000000	0.563108	7.37232e+06	-39939.1	1005.82	-29792	0.000000	0.000000	6.562888	0.015552	NaN	0.000000	0.001707	0.001752	28.0839	0.105831	0.001805	58.6187	-172.423	174.351	0.030084	0.561793	-0.510568	-0.511883	0.015552	58.6187	-0.510767	-4.84278e+06	-3.211463E-9	NaN
743	1.000000	0.603131	7.37232e+06	-39939.1	1005.82	-29792	0.000000	0.000000	6.602913	0.060382	NaN	0.000000	0.001686	0.001677	28.0838	0.044033	0.002102	20.9445	135.522	175.071	0.002645	0.601846	-0.470545	-0.471830	0.060382	20.9445	-0.472708	-1.42355e+06	-4.241616E-8	NaN
743	1.000000	0.643154	7.37232e+06	-39939.1	1005.82	-29792	0.000000	0.000000	6.642934	0.003998	NaN	0.000000	0.001670	0.001698	28.0837	0.071451	0.001953	36.5858	-16.1235	172.807	-0.039711	0.641793	-0.430522	-0.431883	0.003998	36.5858	-0.430604	-363585	-1.099708E-8	NaN
743	1.000000	0.683135	7.37232e+06	-39939.1	1005.82	-29792	0.000000	0.000000	6.682915	0.013953	NaN	0.000000	0.001665	0.001699	28.0827	0.052578	0.002060	25.5214	119.878	177.717	0.016725	0.681801	-0.390541	-0.391875	0.013953	25.5214	-0.390951	-99259	-1.405679E-7	NaN
743	1.000000	0.723192	7.37233e+06	-39939.1	1005.82	-29792	0.000000	0.000000	6.722973	0.032533	NaN	0.000000	0.001662	0.001716	28.0828	0.110357	0.002001	55.1389	-168.52	177.482	0.089804	0.721891	-0.350484	-0.351785	0.032533	55.1389	-0.350927	-26329.9	-1.235599E-6	NaN
743	1.000000	0.763184	7.37233e+06	-39939.1	1005.82	-29792	0.000000	0.000000	6.762962	-0.024837	NaN	0.000000	0.001593	0.001724	28.0829	0.094978	0.001985	47.8419	123.439	173.581	-0.050551	0.761858	-0.310492	-0.311819	-0.024837	47.8419	-0.310103	-6646.25	3.736977E-6	NaN
743	1.000000	0.803183	7.37233e+06	-39939.1	1005.82	-29792	0.000000	0.000000	6.802963	0.013984	NaN	0.000000	0.001589	0.001633	28.0827	0.013575	0.002139	6.346499	-163.79	177.825	0.049457	0.801887	-0.270494	-0.271789	0.013984	6.346499	-0.272146	-1795.31	-7.789098E-6	NaN
743	1.000000	0.843231	7.37233e+06	-39939.1	1005.82	-29792	0.000000	0.000000	6.843012	0.035583	NaN	0.000000	0.001630	0.001661	28.084	0.042400	0.001901	22.3086	102.222	175.716	-0.027083	0.841863	-0.230445	-0.231814	0.035583	22.3086	-0.231642	-425.026	-8.371935E-5	NaN
743	1.000000	0.883243	7.37233e+06	-39939.1	1005.82	-29792	0.000000	0.000000	6.883023	0.013017	NaN	0.000000	0.001615	0.001661	28.0839	0.009529	0.002127	4.479575	150.029	175.384	0.038400	0.881952	-0.190434	-0.191724	0.013017	4.479575	-0.192613	-99.4452	-0.000131	NaN
743	1.000000	0.923273	7.37233e+06	-39939.1	1005.82	-29792	0.000000	0.000000	6.923054	0.049334	NaN	0.000000	0.001645	0.001622	28.0838	0.059534	0.002081	28.6038	-36.6963	173.388	0.041863	0.921899	-0.150403	-0.151777	0.049334	28.6038	-0.151697	-19.4484	-0.002537	NaN
743	1.000000	0.963279	7.37233e+06	-39939.1	1005.82	-29792	0.000000	0.000000	6.963059	0.037568	NaN	0.000000	0.001617	0.001628	28.0827	0.003971	0.002022	1.963791	32.2926	175.537	0.088632	0.961936	-0.110398	-0.111740	0.037568	1.963791	-0.124745	-6.011063	-0.006250	NaN
743	1.000000	1.003319	7.37233e+06	-39939.1	1005.82	-29792	0.000000	0.000000	7.003100	0.037912	NaN	0.000000	0.001620	0.001650	28.083	0.018887	0.002021	9.347302	45.4214	178.988	-0.005306	1.001965	-0.070357	-0.071711	0.037912	9.347302	-0.073399	-0.419646	-0.090344	NaN
743	1.000000	1.043287	7.37233e+06	-39939.1	1005.82	-29792	0.000000	0.000000	7.043067	0.007722	NaN	0.000000	0.001636	0.001673	28.083	0.096767	0.002087	46.358	-145.108	173.514	0.017544	1.041993	-0.030389	-0.031684	0.007722	46.358	-0.030514	-0.023787	-0.324641	NaN
743	2.000000	1.078876	7.37233e+06	-39939.1	1005.82	-29792	0.000000	0.000000	7.079330	16.4228	NaN	0.000000	0.001621	0.001704	28.083	13.68	0.001557	8786.08	8.179564	163.833	15.6409	1.078530	0.005200	0.004854	16.4228	8786.08	0.003798	0.003062	5362.88	145059
743	2.000000	1.088788	7.37233e+06	-39939.1	1005.82	-29792	0.000000	0.000000	7.091446	70.0273	NaN	0.000000	0.001612	0.001717	28.084	31.9513	0.001519	21031.8	1.837632	162.184	69.0709	1.088461	0.015112	0.014784	70.0273	21031.8	0.012615	0.012235	5723.44	173718
743	2.000000	1.098696	7.37233e+06	-39939.1	1005.82	-29792	0.000000	0.000000	7.104903	156.421	NaN	0.000000	0.001576	0.001690	28.084	46.6688	0.001732	26942.9	-0.413278	162.591	153.931	1.098475	0.025019	0.024799	156.421	26942.9	0.020665	0.023598	6628.49	160242
743	2.000000	1.108650	7.37233e+06	-39939.1	1005.82	-29792	0.000000	0.000000	7.119244	263.16	NaN	0.000000	0.001661	0.001693	28.0835	60.9526	0.001761	34612.8	4.147890	155.88	258.577	1.108473	0.034974	0.034796	263.16	34612.8	0.029272	0.039248	6705.01	159625
743	2.000000	1.118733	7.37233e+06	-39939.1	1005.82	-29792	0.000000	0.000000	7.134964	400.341	NaN	0.000000	0.001598	0.001632	28.0826	72.5954	0.001719	42219.1	2.348963	156.669	398.187	1.118356	0.045056	0.044680	400.341	42219.1	0.037945	0.058824	6805.69	159039
743	2.000000	1.128750	7.37233e+06	-39939.1	1005.82	-29792	0.000000	0.000000	7.151143	550.292	NaN	0.000000	0.001593	0.001654	28.0825	85.8165	0.001713	50095	1.597719	155.719	550.379	1.128618	0.055073	0.054941	550.292	50095	0.046835	0.082881	6639.55	158979
743	2.000000	1.138624	7.37233e+06	-39939.1	1005.82	-29792	0.000000	0.000000	7.168921	742.627	NaN	0.000000	0.001617	0.001713	28.0825	99.7879	0.001694	58917.5	6.667055	149.935	737.48	1.138320	0.064948	0.064643	742.627	58917.5	0.055495	0.110150	6741.97	162190
743	2.000000	1.148566	7.37233e+06	-39939.1	1005.82	-29792	0.000000	0.000000	7.186351	924.843	NaN	0.000000	0.001672	0.001659	28.0831	112.809	0.001766	63863.8	6.844121	148.917	916.291	1.148248	0.074889	0.074572	924.843	63863.8	0.064028	0.140648	6575.6	155583
743	2.000000	1.158599	7.37233e+06	-39939.1	1005.82	-29792	0.000000	0.000000	7.204926	1132.7	NaN	0.000000	0.001586	0.001679	28.0835	123.272	0.001889	65268.1	3.818549	152.46	1125.58	1.158224	0.084923	0.084548	1132.7	65268.1	0.071907	0.171930	6588.16	143813
743	2.000000	1.168577	7.37233e+06	-39939.1	1005.82	-29792	0.000000	0.000000	7.224318	1361.8	NaN	0.000000	0.001621	0.001651	28.0836	133.986	0.001772	75634	5.045339	150.626	1353.56	1.168154	0.094900	0.094478	1361.8	75634	0.081397	0.213513	6378.06	149547
743	2.000000	1.176150	7.37233e+06	-39939.1	1005.82	-29792	0.000000	0.000000	7.238467	1521.81	NaN	0.000000	0.001609	0.001635	28.0836	137.652	0.001746	78860.2	-1.934980	-22.4969	1518.5	1.175881	0.102474	0.102205	1521.81	78860.2	0.088001	0.244923	6213.39	145585