File: remote_trans/data/nanoindenter/0828-1/data/Data_2025-08-06,11h17m57s/2025-07-22_16-23-58_1_165.txt
2025-07-22, 16:23:58, 1
Index	Phase	Displacement	Time	Pos X	Pos Y	Pos Z	Rot A	Rot B	Piezo Z	Force A	Force B	Gripper	Voltage A	Voltage B	Temperature	Amplitude force	Amplitude pos	Stiffness	Phase shift	Phase excitation	Force A raw	Displacement raw	HMax	HMax raw	Real Force	Real Stiffness	Contact Depth	Area	Hardness	Reduced Mod.
[#]	[#]	[um]	[s]	[um]	[um]	[um]	[m°]	[m°]	[um]	[uN]	[uN]	[V]	[V]	[V]	[°C]	[uN]	[um]	[N/m]	[°]	[°]	[uN]	[um]	[um]	[um]	[uN]	[N/m]	[um]	[um^2]	[MPa]	[MPa]
165	1.000000	0.002234	7.36665e+06	-46889.1	955.819	-29768.2	0.000000	0.000000	6.002794	0.016461	NaN	0.000000	0.001634	0.001623	28.1061	0.080182	0.000956	83.9152	-72.4558	-164.52	-0.004778	0.000966	-1.040641	-1.041908	0.016461	83.9152	-1.040788	-8.027167E+13	-2.050721E-16	NaN
165	1.000000	0.042191	7.36665e+06	-46889.1	955.819	-29768.2	0.000000	0.000000	6.042752	0.013475	NaN	0.000000	0.001594	0.001689	28.1052	0.022667	0.001977	11.4648	-9.690583	-164.657	0.030629	0.040902	-1.000683	-1.001972	0.013475	11.4648	-1.001565	-2.381406E+13	-5.658577E-16	NaN
165	1.000000	0.082177	7.36665e+06	-46889.1	955.819	-29768.2	0.000000	0.000000	6.082738	0.015771	NaN	0.000000	0.001617	0.001682	28.1035	0.065131	0.002137	30.4729	-82.3131	-167.266	-0.037806	0.080870	-0.960697	-0.962004	0.015771	30.4729	-0.961085	-6.784265E+12	-2.324606E-15	NaN
165	1.000000	0.122224	7.36665e+06	-46889.1	955.819	-29768.2	0.000000	0.000000	6.122785	0.014354	NaN	0.000000	0.001578	0.001722	28.1042	0.028232	0.002003	14.0972	72.6611	-165.908	-0.053191	0.120866	-0.920650	-0.922009	0.014354	14.0972	-0.921414	-1.978320E+12	-7.255708E-15	NaN
165	1.000000	0.162211	7.36665e+06	-46889.1	955.818	-29768.2	0.000000	0.000000	6.162772	0.007257	NaN	0.000000	0.001614	0.001685	28.1031	0.145151	0.002010	72.2202	-178.47	-162.9	-0.027651	0.160922	-0.880663	-0.881952	0.007257	72.2202	-0.880739	-5.580789E+11	-1.300394E-14	NaN
165	1.000000	0.202252	7.36665e+06	-46889.1	955.819	-29768.2	0.000000	0.000000	6.202809	-0.065686	NaN	0.000000	0.001630	0.001700	28.1053	0.100502	0.001990	50.508	176.544	-165.499	-0.012294	0.200967	-0.840623	-0.841907	-0.065686	50.508	-0.839647	-1.550651E+11	4.236013E-13	NaN
165	1.000000	0.242279	7.36665e+06	-46889.1	955.819	-29768.2	0.000000	0.000000	6.242841	0.039796	NaN	0.000000	0.001635	0.001659	28.1046	0.006713	0.002152	3.119724	-8.693170	-164.96	0.018214	0.240957	-0.800595	-0.801917	0.039796	3.119724	-0.810162	-6.176914E+10	-6.442712E-13	NaN
165	1.000000	0.282262	7.36665e+06	-46889.1	955.818	-29768.2	0.000000	0.000000	6.282825	0.071351	NaN	0.000000	0.001678	0.001657	28.1047	0.082979	0.002075	39.9869	-19.4046	-164.491	0.023520	0.280969	-0.760613	-0.761905	0.071351	39.9869	-0.761951	-1.367229E+10	-5.218690E-12	NaN
165	1.000000	0.322274	7.36665e+06	-46889.1	955.819	-29768.2	0.000000	0.000000	6.322834	0.009264	NaN	0.000000	0.001600	0.001636	28.1017	0.105154	0.002104	49.9803	-86.4818	-164.561	0.016759	0.321034	-0.720601	-0.721841	0.009264	49.9803	-0.720740	-3.754572E+9	-2.467427E-12	NaN
165	1.000000	0.362319	7.36665e+06	-46889.1	955.819	-29768.2	0.000000	0.000000	6.362877	-0.049339	NaN	0.000000	0.001577	0.001730	28.1032	0.021863	0.001976	11.0648	-149.874	-167.446	-0.003324	0.360980	-0.680556	-0.681894	-0.049339	11.0648	-0.677211	-9.551261E+8	5.165749E-11	NaN
165	1.000000	0.402339	7.36665e+06	-46889.1	955.819	-29768.2	0.000000	0.000000	6.402899	0.008924	NaN	0.000000	0.001505	0.001677	28.102	0.091362	0.002030	44.9987	-35.8401	-163.393	0.079588	0.401029	-0.640536	-0.641845	0.008924	44.9987	-0.640685	-3.017747E+8	-2.957072E-11	NaN
165	1.000000	0.442347	7.36665e+06	-46889.1	955.819	-29768.2	0.000000	0.000000	6.442909	0.050338	NaN	0.000000	0.001587	0.001721	28.1042	0.058653	0.002055	28.5485	-179.004	-164.147	-0.041573	0.441073	-0.600528	-0.601802	0.050338	28.5485	-0.601850	-8.829612E+7	-5.701028E-10	NaN
165	1.000000	0.482357	7.36665e+06	-46889.1	955.819	-29768.2	0.000000	0.000000	6.482918	0.024600	NaN	0.000000	0.001619	0.001704	28.1035	0.084362	0.002067	40.811	-121.588	-163.768	0.058200	0.481008	-0.560518	-0.561866	0.024600	40.811	-0.560970	-2.408759E+7	-1.021269E-9	NaN
165	1.000000	0.522405	7.36665e+06	-46889.1	955.819	-29768.2	0.000000	0.000000	6.522966	0.000185	NaN	0.000000	0.001656	0.001711	28.1033	0.087771	0.002009	43.6814	-87.0473	-162.788	0.044759	0.521120	-0.520469	-0.521754	0.000185	43.6814	-0.520472	-6.60943e+06	-2.792418E-11	NaN
165	1.000000	0.562403	7.36665e+06	-46889.1	955.819	-29768.2	0.000000	0.000000	6.562962	-0.032473	NaN	0.000000	0.001677	0.001705	28.1022	0.111872	0.002026	55.2146	-155.782	-164.177	0.015978	0.561125	-0.480471	-0.481750	-0.032473	55.2146	-0.480030	-1.80281e+06	1.801218E-8	NaN
165	1.000000	0.602434	7.36665e+06	-46889.1	955.819	-29768.2	0.000000	0.000000	6.602991	-0.076476	NaN	0.000000	0.001587	0.001700	28.1022	0.098116	0.002002	49.0084	39.7403	-164.977	-0.016192	0.601122	-0.440441	-0.441753	-0.076476	49.0084	-0.439270	-482019	1.586569E-7	NaN
165	1.000000	0.642429	7.36665e+06	-46889.1	955.819	-29768.2	0.000000	0.000000	6.642986	-0.067709	NaN	0.000000	0.001538	0.001702	28.1008	0.069926	0.001880	37.2044	-138.485	-165.483	0.001317	0.641085	-0.400446	-0.401790	-0.067709	37.2044	-0.399081	-129684	5.221100E-7	NaN
165	1.000000	0.682473	7.36666e+06	-46889.1	955.819	-29768.2	0.000000	0.000000	6.683033	0.013320	NaN	0.000000	0.001592	0.001716	28.101	0.120940	0.002014	60.0591	16.9318	-163.331	0.083575	0.681152	-0.360402	-0.361723	0.013320	60.0591	-0.360568	-36312.4	-3.668125E-7	NaN
165	1.000000	0.722457	7.36666e+06	-46889.1	955.818	-29768.2	0.000000	0.000000	6.723016	-0.036225	NaN	0.000000	0.001573	0.001731	28.1025	0.033472	0.002098	15.9509	97.2381	-163.586	-0.014327	0.721178	-0.320417	-0.321697	-0.036225	15.9509	-0.318714	-8906.35	4.067343E-6	NaN
165	1.000000	0.762474	7.36666e+06	-46889.1	955.819	-29768.2	0.000000	0.000000	6.763035	0.011029	NaN	0.000000	0.001663	0.001713	28.1023	0.059325	0.002050	28.9324	163.442	-161.497	0.030977	0.761168	-0.280400	-0.281706	0.011029	28.9324	-0.280686	-2417.24	-4.562760E-6	NaN
165	1.000000	0.802504	7.36666e+06	-46889.1	955.82	-29768.2	0.000000	0.000000	6.803065	0.015537	NaN	0.000000	0.001667	0.001695	28.1004	0.034888	0.002061	16.9243	-50.814	-167.153	-0.027772	0.801235	-0.240370	-0.241639	0.015537	16.9243	-0.241059	-597.144	-2.601916E-5	NaN
165	1.000000	0.842526	7.36666e+06	-46889.1	955.818	-29768.2	0.000000	0.000000	6.843083	-0.051394	NaN	0.000000	0.001683	0.001696	28.1021	0.008818	0.001900	4.641374	-115.739	-165.742	-0.063610	0.841218	-0.200349	-0.201657	-0.051394	4.641374	-0.192044	-97.3007	0.000528	NaN
165	1.000000	0.882578	7.36666e+06	-46889.1	955.819	-29768.2	0.000000	0.000000	6.883137	-0.010208	NaN	0.000000	0.001649	0.001682	28.0991	0.043071	0.001939	22.209	-121.247	-161.83	0.031273	0.881219	-0.160297	-0.161655	-0.010208	22.209	-0.159952	-27.3612	0.000373	NaN
165	1.000000	0.922544	7.36666e+06	-46889.1	955.818	-29768.2	0.000000	0.000000	6.923104	0.000114	NaN	0.000000	0.001673	0.001659	28.1001	0.041192	0.001899	21.6953	130.713	-168.115	0.050773	0.921269	-0.120331	-0.121606	0.000114	21.6953	-0.120335	-4.907224	-2.328633E-5	NaN
165	1.000000	0.962549	7.36666e+06	-46889.1	955.819	-29768.2	0.000000	0.000000	6.963108	-0.019638	NaN	0.000000	0.001598	0.001703	28.099	0.028865	0.001983	14.5558	80.8842	-161.979	-0.013356	0.961243	-0.080325	-0.081632	-0.019638	14.5558	-0.079313	-0.594949	0.033007	NaN
165	1.000000	1.002585	7.36666e+06	-46889.1	955.818	-29768.2	0.000000	0.000000	7.003143	-0.049597	NaN	0.000000	0.001609	0.001697	28.1012	0.074976	0.002027	36.9963	102.138	-161.441	0.009144	1.001284	-0.040290	-0.041591	-0.049597	36.9963	-0.039284	-0.043017	1.152970	NaN
165	1.000000	1.042605	7.36666e+06	-46889.1	955.819	-29768.2	0.000000	0.000000	7.043176	0.277188	NaN	0.000000	0.001623	0.001715	28.0997	0.653264	0.002020	323.469	13.4081	-166.49	0.000358	1.041299	-0.000269	-0.001575	0.277188	323.469	-0.000912	-0.000670	-413.814	NaN
165	2.000000	1.058031	7.36666e+06	-46889.1	955.819	-29768.2	0.000000	0.000000	7.059617	24.968	NaN	0.000000	0.001581	0.001723	28.1003	20.0038	0.001820	10994	5.060735	-175.244	24.5483	1.057723	0.015156	0.014849	24.968	10994	0.013453	0.013277	1880.52	87171.9
165	2.000000	1.067944	7.36666e+06	-46889.1	955.818	-29768.2	0.000000	0.000000	7.070378	45.5826	NaN	0.000000	0.001549	0.001715	28.0986	29.8347	0.001812	16462.1	4.875133	-179.133	43.3571	1.067673	0.025070	0.024799	45.5826	16462.1	0.022993	0.027465	1659.64	90754.2
165	2.000000	1.077999	7.36666e+06	-46889.1	955.818	-29768.2	0.000000	0.000000	7.081649	75.1515	NaN	0.000000	0.001540	0.001703	28.099	39.6053	0.001831	21633.3	8.481297	176.065	75.7156	1.077625	0.035125	0.034751	75.1515	21633.3	0.032519	0.046127	1629.22	92027.5
165	2.000000	1.087953	7.36666e+06	-46889.1	955.819	-29768.2	0.000000	0.000000	7.093235	114.863	NaN	0.000000	0.001567	0.001773	28.097	49.0806	0.001840	26680.3	4.839602	176.905	113.683	1.087727	0.045078	0.044852	114.863	26680.3	0.041850	0.068896	1667.2	92868.3
165	2.000000	1.097980	7.36666e+06	-46889.1	955.819	-29768.2	0.000000	0.000000	7.104979	156.621	NaN	0.000000	0.001650	0.001706	28.0988	58.9829	0.001887	31251.9	7.331613	173.004	156.791	1.097646	0.055106	0.054772	156.621	31251.9	0.051347	0.096623	1620.95	91856.6
165	2.000000	1.107910	7.36666e+06	-46889.1	955.82	-29768.2	0.000000	0.000000	7.116930	205.793	NaN	0.000000	0.001537	0.001699	28.099	67.2306	0.001739	38662.8	5.829064	172.778	203.306	1.107738	0.065035	0.064863	205.793	38662.8	0.061043	0.129576	1588.19	98130.5
165	2.000000	1.117947	7.36666e+06	-46889.1	955.821	-29768.2	0.000000	0.000000	7.129617	270.248	NaN	0.000000	0.001628	0.001711	28.0994	77.9218	0.001835	42462.2	9.366103	169.689	272.427	1.117550	0.075073	0.074676	270.248	42462.2	0.070299	0.165308	1634.82	95417.9
165	2.000000	1.127931	7.36666e+06	-46889.1	955.82	-29768.2	0.000000	0.000000	7.142151	332.269	NaN	0.000000	0.001655	0.001744	28.0991	85.1239	0.001783	47735.7	2.094938	175.818	331.959	1.127604	0.085057	0.084730	332.269	47735.7	0.079836	0.206385	1609.95	96001.2
165	2.000000	1.138001	7.36666e+06	-46889.1	955.819	-29768.2	0.000000	0.000000	7.154967	399.064	NaN	0.000000	0.001677	0.001714	28.0961	96.0658	0.001842	52156.5	5.365834	171.924	405.387	1.137555	0.095126	0.094680	399.064	52156.5	0.089388	0.251777	1584.99	94967.1
165	2.000000	1.147818	7.36666e+06	-46889.1	955.82	-29768.2	0.000000	0.000000	7.167872	474.168	NaN	0.000000	0.001567	0.001722	28.0966	102.581	0.001805	56824.6	0.464813	176.088	468.509	1.147542	0.104944	0.104668	474.168	56824.6	0.098685	0.299985	1580.64	94789.5
165	2.000000	1.148324	7.36666e+06	-46889.1	955.82	-29768.2	0.000000	0.000000	7.168693	481.85	NaN	0.000000	0.001581	0.001733	28.1296	102.37	0.001736	58967.2	0.343260	-3.863783	476.462	1.147988	0.105449	0.105114	481.85	58967.2	0.099321	0.303424	1588.05	97804.6