File: remote_trans/data/nanoindenter/0828-1/data/Data_2025-08-06,11h17m57s/2025-07-22_16-23-58_1_1136.txt
2025-07-22, 16:23:58, 1
Index	Phase	Displacement	Time	Pos X	Pos Y	Pos Z	Rot A	Rot B	Piezo Z	Force A	Force B	Gripper	Voltage A	Voltage B	Temperature	Amplitude force	Amplitude pos	Stiffness	Phase shift	Phase excitation	Force A raw	Displacement raw	HMax	HMax raw	Real Force	Real Stiffness	Contact Depth	Area	Hardness	Reduced Mod.
[#]	[#]	[um]	[s]	[um]	[um]	[um]	[m°]	[m°]	[um]	[uN]	[uN]	[V]	[V]	[V]	[°C]	[uN]	[um]	[N/m]	[°]	[°]	[uN]	[um]	[um]	[um]	[uN]	[N/m]	[um]	[um^2]	[MPa]	[MPa]
1136	1.000000	0.002084	7.37617e+06	-56939.1	1055.82	-29737.7	0.000000	0.000000	6.002779	0.036597	NaN	0.000000	0.001544	0.001704	28.0838	0.082389	0.000891	92.4211	-134.475	-164.564	0.046724	0.000859	-1.073114	-1.074340	0.036597	92.4211	-1.073411	-2.203023E+14	-1.661209E-16	NaN
1136	1.000000	0.042056	7.37617e+06	-56939.1	1055.82	-29737.7	0.000000	0.000000	6.042750	0.002930	NaN	0.000000	0.001597	0.001696	28.084	0.085761	0.002056	41.7096	-124.695	-168.692	0.045532	0.040795	-1.033142	-1.034404	0.002930	41.7096	-1.033195	-6.345354E+13	-4.617284E-17	NaN
1136	1.000000	0.082044	7.37617e+06	-56939.1	1055.82	-29737.7	0.000000	0.000000	6.082737	-0.016197	NaN	0.000000	0.001543	0.001752	28.084	0.050136	0.001927	26.0162	-141.509	-163.335	0.000263	0.080738	-0.993154	-0.994460	-0.016197	26.0162	-0.992687	-1.808426E+13	8.956352E-16	NaN
1136	1.000000	0.122050	7.37617e+06	-56939.1	1055.82	-29737.7	0.000000	0.000000	6.122742	-0.047939	NaN	0.000000	0.001602	0.001718	28.0828	0.077188	0.001833	42.1056	-125.028	-165.324	0.025546	0.120771	-0.953148	-0.954427	-0.047939	42.1056	-0.952294	-5.163796E+12	9.283669E-15	NaN
1136	1.000000	0.162086	7.37617e+06	-56939.1	1055.82	-29737.7	0.000000	0.000000	6.162780	-0.000811	NaN	0.000000	0.001570	0.001727	28.0827	0.081758	0.002030	40.2749	-126.486	-165.753	-0.042558	0.160801	-0.913112	-0.914398	-0.000811	40.2749	-0.913097	-1.527517E+12	5.308859E-16	NaN
1136	1.000000	0.202116	7.37617e+06	-56939.1	1055.82	-29737.7	0.000000	0.000000	6.202810	0.019748	NaN	0.000000	0.001631	0.001680	28.0829	0.057217	0.001925	29.72	74.2732	-166.332	0.051229	0.200818	-0.873083	-0.874380	0.019748	29.72	-0.873581	-4.465676E+11	-4.422255E-14	NaN
1136	1.000000	0.242129	7.37617e+06	-56939.1	1055.82	-29737.7	0.000000	0.000000	6.242823	-0.013499	NaN	0.000000	0.001516	0.001714	28.0844	0.022993	0.001913	12.0219	-179.118	-167.088	0.002205	0.240852	-0.833069	-0.834346	-0.013499	12.0219	-0.832227	-1.230168E+11	1.097292E-13	NaN
1136	1.000000	0.282135	7.37617e+06	-56939.1	1055.82	-29737.7	0.000000	0.000000	6.282828	-0.018760	NaN	0.000000	0.001595	0.001739	28.0839	0.004121	0.001969	2.092555	-6.114076	-166.49	-0.075159	0.280887	-0.793064	-0.794311	-0.018760	2.092555	-0.786340	-2.933365E+10	6.395418E-13	NaN
1136	1.000000	0.322168	7.37617e+06	-56939.1	1055.82	-29737.7	0.000000	0.000000	6.322860	-0.053928	NaN	0.000000	0.001586	0.001675	28.0841	0.069226	0.002008	34.481	162.391	-166.269	0.012188	0.320811	-0.753030	-0.754387	-0.053928	34.481	-0.751857	-9.965376E+9	5.411496E-12	NaN
1136	1.000000	0.362159	7.37617e+06	-56939.1	1055.82	-29737.7	0.000000	0.000000	6.362851	-0.032403	NaN	0.000000	0.001572	0.001702	28.0838	0.018647	0.002036	9.158867	-87.5535	-166.363	-0.002038	0.360914	-0.713039	-0.714284	-0.032403	9.158867	-0.710386	-2.712157E+9	1.194729E-11	NaN
1136	1.000000	0.402185	7.37617e+06	-56939.1	1055.82	-29737.7	0.000000	0.000000	6.402878	-0.019184	NaN	0.000000	0.001539	0.001731	28.0824	0.082630	0.002065	40.0096	-115.982	-167.342	0.109746	0.400875	-0.673013	-0.674323	-0.019184	40.0096	-0.672653	-8.273780E+8	2.318594E-11	NaN
1136	1.000000	0.442227	7.37617e+06	-56939.1	1055.82	-29737.7	0.000000	0.000000	6.442920	-0.015857	NaN	0.000000	0.001547	0.001701	28.0827	0.100643	0.001943	51.788	-110.91	-164.53	0.085255	0.440891	-0.632971	-0.634308	-0.015857	51.788	-0.632742	-2.347840E+8	6.754056E-11	NaN
1136	1.000000	0.482252	7.37617e+06	-56939.1	1055.82	-29737.7	0.000000	0.000000	6.482946	-0.010105	NaN	0.000000	0.001583	0.001734	28.0829	0.022407	0.002102	10.659	126.687	-165.464	0.035230	0.480953	-0.592946	-0.594245	-0.010105	10.659	-0.592235	-6.508431E+7	1.552572E-10	NaN
1136	1.000000	0.522246	7.37617e+06	-56939.1	1055.82	-29737.7	0.000000	0.000000	6.522940	0.018263	NaN	0.000000	0.001542	0.001702	28.0842	0.097179	0.001989	48.8585	50.313	-161.011	0.009929	0.520948	-0.552952	-0.554250	0.018263	48.8585	-0.553233	-1.882443E+7	-9.701711E-10	NaN
1136	1.000000	0.562239	7.37617e+06	-56939.1	1055.82	-29737.7	0.000000	0.000000	6.562935	0.063808	NaN	0.000000	0.001648	0.001722	28.084	0.104830	0.001860	56.3534	-167.133	-167.531	-0.011923	0.560976	-0.512960	-0.514222	0.063808	56.3534	-0.513809	-5.3389e+06	-1.195148E-8	NaN
1136	1.000000	0.602275	7.37617e+06	-56939.1	1055.82	-29737.7	0.000000	0.000000	6.602970	0.040882	NaN	0.000000	0.001616	0.001735	28.0845	0.038658	0.002069	18.6827	-91.4849	-164.77	0.065275	0.600920	-0.472924	-0.474278	0.040882	18.6827	-0.474565	-1.51148e+06	-2.704791E-8	NaN
1136	1.000000	0.642298	7.37617e+06	-56939.1	1055.82	-29737.7	0.000000	0.000000	6.642988	-0.094658	NaN	0.000000	0.001588	0.001724	28.0841	0.037638	0.002096	17.9543	73.2267	-163.162	-0.127998	0.640979	-0.432900	-0.434219	-0.094658	17.9543	-0.428946	-344467	2.747960E-7	NaN
1136	1.000000	0.682308	7.37617e+06	-56939.1	1055.82	-29737.8	0.000000	0.000000	6.683001	-0.002931	NaN	0.000000	0.001594	0.001721	28.0829	0.079909	0.002022	39.51	-130.554	-161.701	-0.024148	0.681018	-0.392890	-0.394181	-0.002931	39.51	-0.392835	-105609	2.775603E-8	NaN
1136	1.000000	0.722383	7.37617e+06	-56939.1	1055.82	-29737.8	0.000000	0.000000	6.723078	0.023232	NaN	0.000000	0.001564	0.001677	28.0826	0.018452	0.002098	8.792940	175.877	-168.641	0.034922	0.721066	-0.352815	-0.354133	0.023232	8.792940	-0.354796	-29960.4	-7.754382E-7	NaN
1136	1.000000	0.762330	7.37617e+06	-56939.1	1055.82	-29737.8	0.000000	0.000000	6.763025	0.027979	NaN	0.000000	0.001596	0.001717	28.0825	0.032056	0.002045	15.6778	-32.5649	-167.503	0.013748	0.761075	-0.312868	-0.314123	0.027979	15.6778	-0.314206	-7642.4	-3.661021E-6	NaN
1136	1.000000	0.802394	7.37617e+06	-56939.1	1055.82	-29737.8	0.000000	0.000000	6.803088	0.002915	NaN	0.000000	0.001606	0.001731	28.0839	0.056479	0.002058	27.449	-46.7661	-166.867	0.031589	0.801080	-0.272804	-0.274118	0.002915	27.449	-0.272884	-1842.16	-1.582260E-6	NaN
1136	1.000000	0.842400	7.37617e+06	-56939.1	1055.82	-29737.8	0.000000	0.000000	6.843095	0.030072	NaN	0.000000	0.001553	0.001706	28.0838	0.089055	0.001913	46.5506	163.536	-162.556	0.060341	0.841040	-0.232798	-0.234158	0.030072	46.5506	-0.233283	-451.08	-6.666557E-5	NaN
1136	1.000000	0.882372	7.37617e+06	-56939.1	1055.82	-29737.8	0.000000	0.000000	6.883068	0.048684	NaN	0.000000	0.001564	0.001733	28.0841	0.050397	0.001858	27.1224	-16.5159	-164.975	0.040894	0.881077	-0.192827	-0.194121	0.048684	27.1224	-0.194173	-105.557	-0.000461	NaN
1136	1.000000	0.922439	7.37617e+06	-56939.1	1055.82	-29737.8	0.000000	0.000000	6.923136	0.079009	NaN	0.000000	0.001550	0.001717	28.0833	0.069691	0.002134	32.6604	151.52	-165.898	-0.004447	0.921101	-0.152759	-0.154097	0.079009	32.6604	-0.154573	-21.9229	-0.003604	NaN
1136	1.000000	0.962432	7.37617e+06	-56939.1	1055.82	-29737.8	0.000000	0.000000	6.963124	-0.030155	NaN	0.000000	0.001612	0.001689	28.0832	0.058594	0.001937	30.2567	-97.8201	-164.316	-0.012171	0.961172	-0.112767	-0.114026	-0.030155	30.2567	-0.112019	-3.313219	0.009102	NaN
1136	1.000000	1.002460	7.37617e+06	-56939.1	1055.82	-29737.8	0.000000	0.000000	7.003153	-0.015396	NaN	0.000000	0.001592	0.001697	28.0831	0.027039	0.001998	13.5363	43.463	-164.321	-0.050991	1.001178	-0.072738	-0.074020	-0.015396	13.5363	-0.071885	-0.382874	0.040211	NaN
1136	1.000000	1.042509	7.37617e+06	-56939.1	1055.82	-29737.8	0.000000	0.000000	7.043207	0.085423	NaN	0.000000	0.001555	0.001671	28.0827	0.036087	0.001980	18.2232	7.648472	-163.246	0.050040	1.041182	-0.032689	-0.034017	0.085423	18.2232	-0.036205	-0.034764	-2.457197	NaN
1136	2.000000	1.078993	7.37617e+06	-56939.1	1055.82	-29737.8	0.000000	0.000000	7.080306	15.0635	NaN	0.000000	0.001523	0.001670	28.0841	11.3637	0.001663	6834.27	5.891659	-173.023	13.3942	1.078695	0.003795	0.003497	15.0635	6834.27	0.002142	0.001670	9021.98	152810
1136	2.000000	1.088940	7.37617e+06	-56939.1	1055.82	-29737.8	0.000000	0.000000	7.092168	61.601	NaN	0.000000	0.001557	0.001743	28.0841	23.0396	0.001908	12072.2	6.103795	-178.315	60.7727	1.088700	0.013742	0.013501	61.601	12072.2	0.009915	0.009087	6779.07	115705
1136	2.000000	1.098944	7.37617e+06	-56939.1	1055.82	-29737.8	0.000000	0.000000	7.103643	97.3384	NaN	0.000000	0.001529	0.001727	28.0847	31.3584	0.001761	17804.4	3.840977	-179.894	95.953	1.098718	0.023746	0.023520	97.3384	17804.4	0.019645	0.021988	4426.86	109700
1136	2.000000	1.108873	7.37617e+06	-56939.1	1055.82	-29737.8	0.000000	0.000000	7.116258	162.629	NaN	0.000000	0.001540	0.001675	28.0828	39.7513	0.001736	22891.9	3.722548	178.998	161.606	1.108571	0.033675	0.033373	162.629	22891.9	0.028347	0.037386	4349.96	108168
1136	2.000000	1.118829	7.37617e+06	-56939.1	1055.82	-29737.8	0.000000	0.000000	7.128915	228.293	NaN	0.000000	0.001557	0.001721	28.0831	48.5761	0.001735	28002.7	4.038680	176.702	225.879	1.118589	0.043631	0.043391	228.293	28002.7	0.037516	0.057767	3951.97	106447
1136	2.000000	1.128971	7.37617e+06	-56939.1	1055.82	-29737.8	0.000000	0.000000	7.141450	286.449	NaN	0.000000	0.001591	0.001766	28.0829	58.7276	0.001754	33489.7	5.073940	175.169	290.307	1.128677	0.053773	0.053479	286.449	33489.7	0.047358	0.084421	3393.11	105308
1136	2.000000	1.138845	7.37617e+06	-56939.1	1055.82	-29737.8	0.000000	0.000000	7.154215	356.724	NaN	0.000000	0.001533	0.001722	28.0829	65.8341	0.001897	34700.2	6.467532	173.976	356.435	1.138516	0.063646	0.063318	356.724	34700.2	0.055936	0.111641	3195.27	94884
1136	2.000000	1.148852	7.37617e+06	-56939.1	1055.82	-29737.8	0.000000	0.000000	7.165701	392.638	NaN	0.000000	0.001580	0.001763	28.0841	74.6506	0.001937	38535.6	4.765467	174.004	390.845	1.148635	0.073654	0.073437	392.638	38535.6	0.066013	0.148247	2648.54	91441.3
1136	2.000000	1.158877	7.37617e+06	-56939.1	1055.82	-29737.8	0.000000	0.000000	7.178011	448.18	NaN	0.000000	0.001555	0.001687	28.0841	81.079	0.001782	45505.2	4.701291	174.345	449.425	1.158351	0.083679	0.083153	448.18	45505.2	0.076293	0.190623	2351.13	95224
1136	2.000000	1.168889	7.37617e+06	-56939.1	1055.82	-29737.8	0.000000	0.000000	7.189975	495.664	NaN	0.000000	0.001584	0.001700	28.0844	89.8178	0.001950	46052.3	5.583582	173.067	497.366	1.168512	0.093690	0.093314	495.664	46052.3	0.085618	0.233359	2124.04	87098.7
1136	2.000000	1.176280	7.37617e+06	-56939.1	1055.82	-29737.8	0.000000	0.000000	7.199055	536.693	NaN	0.000000	0.001574	0.001672	28.083	96.0697	0.001943	49451.9	6.227602	-8.578289	531.692	1.175846	0.101082	0.100648	536.693	49451.9	0.092942	0.269740	1989.67	86992.9