File: remote_trans/data/nanoindenter/0828-1/data/Data_2025-08-06,11h17m57s/2025-07-22_16-23-58_1_399.txt
2025-07-22, 16:23:58, 1
Index	Phase	Displacement	Time	Pos X	Pos Y	Pos Z	Rot A	Rot B	Piezo Z	Force A	Force B	Gripper	Voltage A	Voltage B	Temperature	Amplitude force	Amplitude pos	Stiffness	Phase shift	Phase excitation	Force A raw	Displacement raw	HMax	HMax raw	Real Force	Real Stiffness	Contact Depth	Area	Hardness	Reduced Mod.
[#]	[#]	[um]	[s]	[um]	[um]	[um]	[m°]	[m°]	[um]	[uN]	[uN]	[V]	[V]	[V]	[°C]	[uN]	[um]	[N/m]	[°]	[°]	[uN]	[um]	[um]	[um]	[uN]	[N/m]	[um]	[um^2]	[MPa]	[MPa]
399	1.000000	0.002719	7.36896e+06	-57139.1	1005.82	-29737.6	0.000000	0.000000	6.002766	0.019505	NaN	0.000000	0.001617	0.001742	28.0786	0.043109	0.001062	40.5919	-118.248	-159.933	0.039495	0.001466	-0.997506	-0.998758	0.019505	40.5919	-0.997867	-2.123463E+13	-9.185632E-16	NaN
399	1.000000	0.040700	7.36896e+06	-57139.1	1005.82	-29737.6	0.000000	0.000000	6.040752	0.112001	NaN	0.000000	0.001630	0.001683	28.079	0.031216	0.001858	16.8033	-144.372	11.3043	0.057739	0.039375	-0.959525	-0.960850	0.112001	16.8033	-0.964524	-7.548324E+12	-1.483787E-14	NaN
399	1.000000	0.078673	7.36896e+06	-57139.1	1005.82	-29737.6	0.000000	0.000000	6.078720	-0.001718	NaN	0.000000	0.001620	0.001698	28.0783	0.045433	0.001918	23.6902	-110.507	-164.329	0.105716	0.077430	-0.921551	-0.922795	-0.001718	23.6902	-0.921497	-1.983425E+12	8.663153E-16	NaN
399	1.000000	0.116732	7.36896e+06	-57139.1	1005.82	-29737.6	0.000000	0.000000	6.116782	0.081172	NaN	0.000000	0.001622	0.001710	28.0795	0.053696	0.002058	26.0857	171.82	18.269	0.116907	0.115389	-0.883493	-0.884836	0.081172	26.0857	-0.885826	-6.538710E+11	-1.241406E-13	NaN
399	1.000000	0.154750	7.36896e+06	-57139.1	1005.82	-29737.6	0.000000	0.000000	6.154799	0.050200	NaN	0.000000	0.001654	0.001660	28.0796	0.071069	0.002010	35.3503	-51.6829	-167.697	0.027716	0.153426	-0.845474	-0.846798	0.050200	35.3503	-0.846539	-1.922532E+11	-2.611132E-13	NaN
399	1.000000	0.192772	7.36896e+06	-57139.1	1005.82	-29737.6	0.000000	0.000000	6.192822	0.066454	NaN	0.000000	0.001689	0.001696	28.0801	0.097307	0.002030	47.9458	-17.0316	14.368	0.051035	0.191398	-0.807452	-0.808826	0.066454	47.9458	-0.808492	-5.862861E+10	-1.133479E-12	NaN
399	1.000000	0.230732	7.36896e+06	-57139.1	1005.82	-29737.6	0.000000	0.000000	6.230784	0.114983	NaN	0.000000	0.001649	0.001698	28.0786	0.091137	0.002090	43.6008	141.502	-164.002	0.068162	0.229524	-0.769493	-0.770701	0.114983	43.6008	-0.771471	-1.842051E+10	-6.242113E-12	NaN
399	1.000000	0.268766	7.36896e+06	-57139.1	1005.82	-29737.6	0.000000	0.000000	6.268811	-0.052437	NaN	0.000000	0.001641	0.001717	28.0783	0.089707	0.001969	45.5622	-131.416	17.9642	-0.001344	0.267412	-0.731459	-0.732812	-0.052437	45.5622	-0.730595	-5.115899E+9	1.024981E-11	NaN
399	1.000000	0.306789	7.36897e+06	-57139.1	1005.82	-29737.6	0.000000	0.000000	6.306836	-0.019027	NaN	0.000000	0.001653	0.001724	28.0785	0.068754	0.001906	36.0814	-37.4804	-163.17	-0.006825	0.305508	-0.693435	-0.694717	-0.019027	36.0814	-0.693040	-1.572015E+9	1.210379E-11	NaN
399	1.000000	0.344832	7.36897e+06	-57139.1	1005.82	-29737.6	0.000000	0.000000	6.344882	0.083058	NaN	0.000000	0.001623	0.001732	28.0789	0.014894	0.001985	7.501622	121.962	17.5312	0.027826	0.343477	-0.655393	-0.656748	0.083058	7.501622	-0.663697	-6.238803E+8	-1.331318E-10	NaN
399	1.000000	0.382828	7.36897e+06	-57139.1	1005.82	-29737.6	0.000000	0.000000	6.382877	0.030446	NaN	0.000000	0.001589	0.001743	28.0798	0.028930	0.001962	14.7441	102.44	-164.627	0.050331	0.381523	-0.617396	-0.618702	0.030446	14.7441	-0.618945	-1.517512E+8	-2.006297E-10	NaN
399	1.000000	0.420845	7.36897e+06	-57139.1	1005.82	-29737.6	0.000000	0.000000	6.420892	0.010283	NaN	0.000000	0.001582	0.001704	28.0799	0.033609	0.002038	16.4915	-155.055	14.2772	0.044282	0.419519	-0.579380	-0.580706	0.010283	16.4915	-0.579847	-4.391581E+7	-2.341429E-10	NaN
399	1.000000	0.458867	7.36897e+06	-57139.1	1005.82	-29737.6	0.000000	0.000000	6.458917	0.051741	NaN	0.000000	0.001606	0.001693	28.0798	0.097053	0.001977	49.0879	-142.159	-165.93	0.021437	0.457559	-0.541357	-0.542666	0.051741	49.0879	-0.542148	-1.321729E+7	-3.914642E-9	NaN
399	1.000000	0.496900	7.36897e+06	-57139.1	1005.82	-29737.6	0.000000	0.000000	6.496949	0.055764	NaN	0.000000	0.001666	0.001698	28.0799	0.069967	0.001832	38.1866	160.719	15.8607	0.066900	0.495563	-0.503325	-0.504662	0.055764	38.1866	-0.504420	-3.95056e+06	-1.411542E-8	NaN
399	1.000000	0.534922	7.36897e+06	-57139.1	1005.82	-29737.6	0.000000	0.000000	6.534972	0.072567	NaN	0.000000	0.001705	0.001681	28.0786	0.078133	0.001936	40.3578	119.448	-167.488	0.050422	0.533580	-0.465303	-0.466645	0.072567	40.3578	-0.466651	-1.17064e+06	-6.198871E-8	NaN
399	1.000000	0.572933	7.36897e+06	-57139.1	1005.82	-29737.6	0.000000	0.000000	6.572982	0.046516	NaN	0.000000	0.001672	0.001731	28.0788	0.116418	0.002006	58.0378	87.818	15.5274	0.043226	0.571592	-0.427292	-0.428633	0.046516	58.0378	-0.427893	-332850	-1.397523E-7	NaN
399	1.000000	0.610956	7.36897e+06	-57139.1	1005.82	-29737.6	0.000000	0.000000	6.611006	0.081316	NaN	0.000000	0.001643	0.001708	28.0785	0.072993	0.002055	35.5273	150.698	-164.771	0.065307	0.609597	-0.389269	-0.390628	0.081316	35.5273	-0.390986	-99372.2	-8.182937E-7	NaN
399	1.000000	0.648940	7.36897e+06	-57139.1	1005.82	-29737.6	0.000000	0.000000	6.648987	0.007340	NaN	0.000000	0.001611	0.001702	28.0795	0.047363	0.001960	24.1654	91.6945	17.2644	0.011039	0.647625	-0.351285	-0.352599	0.007340	24.1654	-0.351513	-26850.5	-2.733637E-7	NaN
399	1.000000	0.686975	7.36897e+06	-57139.1	1005.82	-29737.6	0.000000	0.000000	6.687024	0.057334	NaN	0.000000	0.001599	0.001703	28.0797	0.010459	0.002071	5.051239	51.8908	-163.841	0.080012	0.685665	-0.313250	-0.314559	0.057334	5.051239	-0.321763	-9875.86	-5.805451E-6	NaN
399	1.000000	0.725000	7.36897e+06	-57139.1	1005.82	-29737.6	0.000000	0.000000	6.725049	0.044253	NaN	0.000000	0.001624	0.001706	28.0801	0.085320	0.001895	45.0171	32.0076	13.5338	0.018838	0.723642	-0.275225	-0.276582	0.044253	45.0171	-0.275962	-2051	-2.157622E-5	NaN
399	1.000000	0.762993	7.36897e+06	-57139.1	1005.82	-29737.6	0.000000	0.000000	6.763042	0.040355	NaN	0.000000	0.001624	0.001734	28.0797	0.088920	0.002012	44.2013	-150.03	-164.157	0.026826	0.761729	-0.237232	-0.238495	0.040355	44.2013	-0.237917	-533.303	-7.566985E-5	NaN
399	1.000000	0.801006	7.36897e+06	-57139.1	1005.82	-29737.6	0.000000	0.000000	6.801055	0.062128	NaN	0.000000	0.001591	0.001708	28.0787	0.069589	0.001967	35.3842	-97.0735	10.5537	0.010377	0.799627	-0.199219	-0.200598	0.062128	35.3842	-0.200536	-134.431	-0.000462	NaN
399	1.000000	0.839067	7.36897e+06	-57139.1	1005.82	-29737.6	0.000000	0.000000	6.839116	0.031694	NaN	0.000000	0.001664	0.001676	28.0789	0.040169	0.002077	19.3442	41.6613	-163.923	0.022990	0.837779	-0.161157	-0.162445	0.031694	19.3442	-0.162386	-30.2179	-0.001049	NaN
399	1.000000	0.877043	7.36897e+06	-57139.1	1005.82	-29737.6	0.000000	0.000000	6.877093	0.060624	NaN	0.000000	0.001670	0.001730	28.0789	0.054159	0.002033	26.6409	-163.149	16.2095	0.100472	0.875716	-0.123182	-0.124509	0.060624	26.6409	-0.124888	-6.050370	-0.010020	NaN
399	1.000000	0.915064	7.36897e+06	-57139.1	1005.82	-29737.6	0.000000	0.000000	6.915113	0.039189	NaN	0.000000	0.001663	0.001732	28.0798	0.103547	0.002025	51.1231	-163.691	-161.543	0.039027	0.913714	-0.085160	-0.086510	0.039189	51.1231	-0.085735	-0.855922	-0.045786	NaN
399	1.000000	0.953062	7.36897e+06	-57139.1	1005.82	-29737.6	0.000000	0.000000	6.953110	0.024543	NaN	0.000000	0.001660	0.001724	28.0799	0.041885	0.002022	20.7175	176.665	16.4149	0.073449	0.951742	-0.047163	-0.048483	0.024543	20.7175	-0.048051	-0.079638	-0.308179	NaN
399	1.000000	0.991082	7.36897e+06	-57139.1	1005.82	-29737.6	0.000000	0.000000	6.991131	0.051008	NaN	0.000000	0.001676	0.001726	28.0798	0.100366	0.001926	52.1041	56.0768	-163.275	0.001663	0.989779	-0.009143	-0.010445	0.051008	52.1041	-0.009877	-0.006317	-8.074677	NaN
399	2.000000	1.012073	7.36897e+06	-57139.1	1005.82	-29737.6	0.000000	0.000000	7.013367	30.3163	NaN	0.000000	0.001676	0.001702	28.0799	15.8572	0.001825	8688.23	2.493184	8.208647	29.3502	1.011696	0.011848	0.011471	30.3163	8688.23	0.009231	0.008340	3635.22	86922.4
399	2.000000	1.021498	7.36897e+06	-57139.1	1005.82	-29737.6	0.000000	0.000000	7.023569	49.1921	NaN	0.000000	0.001687	0.001769	28.0791	25.3128	0.001822	13891	2.472649	-174.315	45.7039	1.021161	0.021273	0.020936	49.1921	13891	0.018617	0.020416	2409.5	88822.6
399	2.000000	1.030935	7.36897e+06	-57139.1	1005.82	-29737.6	0.000000	0.000000	7.035007	97.8203	NaN	0.000000	0.001714	0.001769	28.0786	33.3525	0.001772	18826.6	4.486114	0.652405	94.6675	1.030612	0.030710	0.030388	97.8203	18826.6	0.026814	0.034398	2843.79	92742.8
399	2.000000	1.040515	7.36897e+06	-57139.1	1005.82	-29737.6	0.000000	0.000000	7.046171	136.315	NaN	0.000000	0.001691	0.001762	28.0791	42.1807	0.001831	23036.2	7.419986	176.481	137.881	1.040055	0.040290	0.039831	136.315	23036.2	0.035852	0.053749	2536.12	90781.7
399	2.000000	1.049923	7.36897e+06	-57139.1	1005.82	-29737.6	0.000000	0.000000	7.057376	179.994	NaN	0.000000	0.001672	0.001748	28.0785	50.6226	0.001998	25330.3	8.376182	-5.451483	178.1	1.049477	0.049699	0.049252	179.994	25330.3	0.044369	0.075807	2374.38	84054.4
399	2.000000	1.059405	7.36897e+06	-57139.1	1005.82	-29737.6	0.000000	0.000000	7.068539	220.844	NaN	0.000000	0.001619	0.001715	28.0796	54.0672	0.001898	28482.8	4.687586	177.56	217.953	1.059027	0.059181	0.058802	220.844	28482.8	0.053366	0.103099	2142.05	81045.4
399	2.000000	1.069011	7.36897e+06	-57139.1	1005.82	-29737.6	0.000000	0.000000	7.079446	252.474	NaN	0.000000	0.001588	0.001748	28.0797	61.5431	0.001743	35313.4	3.870320	-4.586257	255.942	1.068657	0.068786	0.068432	252.474	35313.4	0.063424	0.138372	1824.61	86734.1
399	2.000000	1.078341	7.36897e+06	-57139.1	1005.82	-29737.6	0.000000	0.000000	7.090780	301.189	NaN	0.000000	0.001609	0.001733	28.0796	68.7802	0.001833	37532	5.605625	174.361	296.425	1.077909	0.078116	0.077684	301.189	37532	0.072098	0.172726	1743.74	82507.9
399	2.000000	1.087899	7.36897e+06	-57139.1	1005.82	-29737.6	0.000000	0.000000	7.102336	349.754	NaN	0.000000	0.001643	0.001764	28.0785	75.8271	0.001902	39872.7	7.978136	-7.679576	346.63	1.087565	0.087674	0.087341	349.754	39872.7	0.081095	0.212126	1648.8	79095.5
399	2.000000	1.097464	7.36897e+06	-57139.1	1005.82	-29737.6	0.000000	0.000000	7.113924	398.901	NaN	0.000000	0.001658	0.001721	28.0784	81.7415	0.001797	45495.8	2.244090	176.013	401.694	1.097093	0.097240	0.096868	398.901	45495.8	0.090664	0.258159	1545.18	81809.1
399	2.000000	1.104941	7.36897e+06	-57139.1	1005.82	-29737.6	0.000000	0.000000	7.122967	436.971	NaN	0.000000	0.001607	0.001711	28.0786	90.4934	0.001943	46564.6	5.428299	-7.018586	438.882	1.104737	0.104717	0.104512	436.971	46564.6	0.097679	0.294574	1483.4	78384.8