File: remote_trans/data/nanoindenter/0828-1/data/Data_2025-08-06,11h17m57s/2025-07-22_16-23-58_1_638.txt
2025-07-22, 16:23:58, 1
Index	Phase	Displacement	Time	Pos X	Pos Y	Pos Z	Rot A	Rot B	Piezo Z	Force A	Force B	Gripper	Voltage A	Voltage B	Temperature	Amplitude force	Amplitude pos	Stiffness	Phase shift	Phase excitation	Force A raw	Displacement raw	HMax	HMax raw	Real Force	Real Stiffness	Contact Depth	Area	Hardness	Reduced Mod.
[#]	[#]	[um]	[s]	[um]	[um]	[um]	[m°]	[m°]	[um]	[uN]	[uN]	[V]	[V]	[V]	[°C]	[uN]	[um]	[N/m]	[°]	[°]	[uN]	[um]	[um]	[um]	[uN]	[N/m]	[um]	[um^2]	[MPa]	[MPa]
638	1.000000	0.001927	7.37129e+06	-45189.1	1005.82	-29773.2	0.000000	0.000000	6.002822	0.007138	NaN	0.000000	0.001738	0.001677	28.0836	0.052140	0.001077	48.3971	-169.079	-159.239	0.040094	0.000677	-1.122288	-1.123538	0.007138	48.3971	-1.122399	-1.001507E+15	-7.127515E-18	NaN
638	1.000000	0.043858	7.37129e+06	-45189.1	1005.82	-29773.2	0.000000	0.000000	6.044754	0.031768	NaN	0.000000	0.001656	0.001677	28.0831	0.042158	0.001994	21.1379	-42.1123	13.2867	0.014276	0.042504	-1.080357	-1.081711	0.031768	21.1379	-1.081484	-2.827801E+14	-1.123423E-16	NaN
638	1.000000	0.085856	7.37129e+06	-45189.1	1005.82	-29773.2	0.000000	0.000000	6.086754	0.086999	NaN	0.000000	0.001682	0.001708	28.0834	0.045311	0.002043	22.1743	44.9475	-165.705	0.060644	0.084503	-1.038359	-1.039712	0.086999	22.1743	-1.041301	-8.155760E+13	-1.066720E-15	NaN
638	1.000000	0.127872	7.37129e+06	-45189.1	1005.82	-29773.2	0.000000	0.000000	6.128767	0.027522	NaN	0.000000	0.001680	0.001720	28.0823	0.036906	0.001984	18.6062	-54.4712	13.0553	0.077518	0.126538	-0.996343	-0.997677	0.027522	18.6062	-0.997453	-2.096382E+13	-1.312841E-15	NaN
638	1.000000	0.169902	7.37129e+06	-45189.1	1005.82	-29773.2	0.000000	0.000000	6.170796	-0.027807	NaN	0.000000	0.001705	0.001719	28.083	0.054462	0.001970	27.6419	-83.1902	-165.391	0.012157	0.168572	-0.954312	-0.955643	-0.027807	27.6419	-0.953558	-5.370433E+12	5.177809E-15	NaN
638	1.000000	0.211897	7.37129e+06	-45189.1	1005.82	-29773.2	0.000000	0.000000	6.212788	-0.100874	NaN	0.000000	0.001700	0.001664	28.0823	0.019280	0.002038	9.458563	-98.1385	14.5397	-0.036523	0.210579	-0.912317	-0.913636	-0.100874	9.458563	-0.904319	-1.162566E+12	8.676832E-14	NaN
638	1.000000	0.253919	7.37129e+06	-45189.1	1005.82	-29773.2	0.000000	0.000000	6.254813	-0.012312	NaN	0.000000	0.001653	0.001643	28.0836	0.000424	0.001921	0.220921	-47.6302	-164.711	-0.000892	0.252594	-0.870296	-0.871620	-0.012312	0.220921	-0.828499	-1.095055E+11	1.124312E-13	NaN
638	1.000000	0.295931	7.37129e+06	-45189.1	1005.82	-29773.2	0.000000	0.000000	6.296829	0.089085	NaN	0.000000	0.001625	0.001633	28.0837	0.062569	0.001879	33.3027	-150.281	13.5622	0.016808	0.294614	-0.828284	-0.829601	0.089085	33.3027	-0.830290	-1.158024E+11	-7.692830E-13	NaN
638	1.000000	0.337958	7.37129e+06	-45189.1	1005.82	-29773.2	0.000000	0.000000	6.338853	-0.000475	NaN	0.000000	0.001671	0.001667	28.0833	0.099280	0.001944	51.0801	73.9309	-162.727	-0.042536	0.336634	-0.786257	-0.787581	-0.000475	51.0801	-0.786250	-2.925133E+10	1.624963E-14	NaN
638	1.000000	0.379995	7.37129e+06	-45189.1	1005.82	-29773.2	0.000000	0.000000	6.380892	0.044498	NaN	0.000000	0.001649	0.001672	28.0822	0.105401	0.001883	55.9792	10.4329	14.781	0.022766	0.378600	-0.744220	-0.745615	0.044498	55.9792	-0.744816	-7.991756E+9	-5.567976E-12	NaN
638	1.000000	0.422052	7.37129e+06	-45189.1	1005.82	-29773.2	0.000000	0.000000	6.422948	0.048716	NaN	0.000000	0.001713	0.001650	28.0822	0.107522	0.001973	54.4997	109.957	-165.092	0.036383	0.420716	-0.702163	-0.703499	0.048716	54.4997	-0.702833	-2.139057E+9	-2.277459E-11	NaN
638	1.000000	0.464033	7.37129e+06	-45189.1	1005.82	-29773.2	0.000000	0.000000	6.464926	-0.039670	NaN	0.000000	0.001678	0.001707	28.0821	0.048003	0.001965	24.4317	-80.8282	15.3593	-0.117682	0.462666	-0.660182	-0.661549	-0.039670	24.4317	-0.658964	-5.373725E+8	7.382267E-11	NaN
638	1.000000	0.506021	7.37129e+06	-45189.1	1005.82	-29773.2	0.000000	0.000000	6.506915	-0.013173	NaN	0.000000	0.001707	0.001701	28.0819	0.021122	0.001986	10.6379	-130.743	-167.269	0.031357	0.504715	-0.618194	-0.619500	-0.013173	10.6379	-0.617265	-1.438909E+8	9.154936E-11	NaN
638	1.000000	0.548068	7.37129e+06	-45189.1	1005.82	-29773.2	0.000000	0.000000	6.548961	-0.033177	NaN	0.000000	0.001698	0.001693	28.0834	0.030133	0.002010	14.9881	127.573	12.7524	0.003776	0.546702	-0.576147	-0.577513	-0.033177	14.9881	-0.574487	-3.703519E+7	8.958166E-10	NaN
638	1.000000	0.590070	7.37129e+06	-45189.1	1005.82	-29773.2	0.000000	0.000000	6.590963	-0.019516	NaN	0.000000	0.001722	0.001684	28.0834	0.106943	0.001900	56.2863	102.093	-163.114	-0.030463	0.588782	-0.534145	-0.535433	-0.019516	56.2863	-0.533885	-1.015123E+7	1.922514E-9	NaN
638	1.000000	0.632116	7.37129e+06	-45189.1	1005.82	-29773.2	0.000000	0.000000	6.633011	0.012125	NaN	0.000000	0.001716	0.001687	28.0833	0.070281	0.002063	34.0705	-143.42	12.3233	-0.013602	0.630721	-0.492099	-0.493494	0.012125	34.0705	-0.492366	-2.68194e+06	-4.520813E-9	NaN
638	1.000000	0.674114	7.37129e+06	-45189.1	1005.82	-29773.2	0.000000	0.000000	6.675009	0.009720	NaN	0.000000	0.001744	0.001629	28.0821	0.088370	0.001998	44.2241	99.4668	-166.057	0.009099	0.672807	-0.450101	-0.451408	0.009720	44.2241	-0.450266	-688788	-1.411239E-8	NaN
638	1.000000	0.716103	7.37129e+06	-45189.1	1005.82	-29773.2	0.000000	0.000000	6.716998	-0.005270	NaN	0.000000	0.001752	0.001646	28.0822	0.033640	0.002060	16.3288	-10.9798	14.0165	0.004270	0.714771	-0.408111	-0.409444	-0.005270	16.3288	-0.407869	-173019	3.045887E-8	NaN
638	1.000000	0.758151	7.37129e+06	-45189.1	1005.82	-29773.3	0.000000	0.000000	6.759045	-0.020517	NaN	0.000000	0.001734	0.001639	28.0821	0.064882	0.001932	33.5862	145.163	-166.754	-0.030549	0.756832	-0.366064	-0.367383	-0.020517	33.5862	-0.365606	-42933.3	4.778780E-7	NaN
638	1.000000	0.800151	7.37129e+06	-45189.1	1005.82	-29773.2	0.000000	0.000000	6.801045	-0.007314	NaN	0.000000	0.001737	0.001624	28.0834	0.051281	0.001985	25.8337	119.197	15.341	0.056958	0.798832	-0.324064	-0.325383	-0.007314	25.8337	-0.323852	-10599.3	6.900337E-7	NaN
638	1.000000	0.842179	7.3713e+06	-45189.1	1005.82	-29773.3	0.000000	0.000000	6.843073	-0.022212	NaN	0.000000	0.001718	0.001650	28.0834	0.068949	0.001944	35.4659	-118.908	-165.586	-0.041211	0.840850	-0.282036	-0.283365	-0.022212	35.4659	-0.281566	-2492.18	8.912582E-6	NaN
638	1.000000	0.884203	7.3713e+06	-45189.1	1005.82	-29773.3	0.000000	0.000000	6.885097	-0.005359	NaN	0.000000	0.001758	0.001663	28.0841	0.065854	0.001887	34.8933	111.126	11.9125	0.029893	0.882853	-0.240012	-0.241362	-0.005359	34.8933	-0.239897	-572.725	9.357249E-6	NaN
638	1.000000	0.926213	7.3713e+06	-45189.1	1005.82	-29773.3	0.000000	0.000000	6.927107	-0.017724	NaN	0.000000	0.001802	0.001707	28.0822	0.051667	0.001941	26.6171	-177.424	-168.234	-0.008172	0.924878	-0.198001	-0.199337	-0.017724	26.6171	-0.197502	-119.83	0.000148	NaN
638	1.000000	0.968254	7.3713e+06	-45189.1	1005.82	-29773.3	0.000000	0.000000	6.969149	0.011732	NaN	0.000000	0.001805	0.001710	28.0822	0.061587	0.001955	31.5087	-101.84	14.2205	0.059560	0.966888	-0.155961	-0.157326	0.011732	31.5087	-0.156241	-23.4892	-0.000499	NaN
638	1.000000	1.010205	7.3713e+06	-45189.1	1005.82	-29773.3	0.000000	0.000000	7.011101	0.029953	NaN	0.000000	0.001755	0.001696	28.0822	0.084821	0.002096	40.463	32.7795	-168.323	0.029110	1.008920	-0.114010	-0.115295	0.029953	40.463	-0.114565	-3.742216	-0.008004	NaN
638	1.000000	1.052256	7.3713e+06	-45189.1	1005.82	-29773.3	0.000000	0.000000	7.053152	0.029944	NaN	0.000000	0.001728	0.001703	28.082	0.100043	0.002111	47.3935	-83.3212	12.443	0.073157	1.050938	-0.071959	-0.073277	0.029944	47.3935	-0.072433	-0.395827	-0.075650	NaN
638	1.000000	1.094287	7.3713e+06	-45189.1	1005.82	-29773.3	0.000000	0.000000	7.095182	0.001817	NaN	0.000000	0.001684	0.001715	28.085	0.065800	0.002160	30.4684	-125.837	-166.855	-0.028624	1.092997	-0.029927	-0.031217	0.001817	30.4684	-0.029972	-0.022972	-0.079097	NaN
638	2.000000	1.132430	7.3713e+06	-45189.1	1005.82	-29773.3	0.000000	0.000000	7.133675	8.528202	NaN	0.000000	0.001737	0.001681	28.083	9.058293	0.001675	5409.21	3.952030	11.2325	8.489170	1.132132	0.008215	0.007917	8.528202	5409.21	0.007033	0.006066	1405.87	63452.8
638	2.000000	1.142840	7.3713e+06	-45189.1	1005.82	-29773.3	0.000000	0.000000	7.144929	29.0632	NaN	0.000000	0.001752	0.001644	28.0832	20.4193	0.001787	11423.6	5.719238	-177.9	27.9174	1.142598	0.018625	0.018383	29.0632	11423.6	0.016717	0.017643	1647.27	78575.2
638	2.000000	1.153354	7.3713e+06	-45189.1	1005.82	-29773.3	0.000000	0.000000	7.156498	54.7333	NaN	0.000000	0.001828	0.001664	28.0821	31.1084	0.001816	17125.8	6.724765	-1.608468	54.1391	1.152925	0.029139	0.028710	54.7333	17125.8	0.026742	0.034261	1597.56	84533
638	2.000000	1.163823	7.3713e+06	-45189.1	1005.82	-29773.3	0.000000	0.000000	7.168552	93.2801	NaN	0.000000	0.001707	0.001699	28.0818	39.6895	0.001700	23352.2	5.964698	175.848	92.4089	1.163440	0.039609	0.039225	93.2801	23352.2	0.036613	0.055568	1678.68	90508.7
638	2.000000	1.174257	7.3713e+06	-45189.1	1005.82	-29773.3	0.000000	0.000000	7.180980	141.784	NaN	0.000000	0.001718	0.001652	28.0822	49.8185	0.001688	29506.8	5.284266	-5.252899	138.283	1.173894	0.050042	0.049679	141.784	29506.8	0.046438	0.081723	1734.92	94302.3
638	2.000000	1.184814	7.3713e+06	-45189.1	1005.82	-29773.3	0.000000	0.000000	7.193858	198.27	NaN	0.000000	0.001748	0.001662	28.0836	62.4154	0.001944	32101.8	5.972260	174.502	196.071	1.184416	0.060599	0.060201	198.27	32101.8	0.055967	0.111744	1774.32	87738.6
638	2.000000	1.195264	7.3713e+06	-45189.1	1005.82	-29773.3	0.000000	0.000000	7.206997	263.674	NaN	0.000000	0.001814	0.001650	28.0833	71.5937	0.001779	40246.7	0.061441	-2.010800	259.927	1.195075	0.071049	0.070860	263.674	40246.7	0.066136	0.148724	1772.9	95348.1
638	2.000000	1.205686	7.3713e+06	-45189.1	1005.82	-29773.3	0.000000	0.000000	7.220688	343.178	NaN	0.000000	0.001822	0.001637	28.0838	82.4936	0.001805	45699.4	6.251039	170.622	338.269	1.205342	0.081471	0.081128	343.178	45699.4	0.075839	0.188649	1819.14	96129.6
638	2.000000	1.216269	7.3713e+06	-45189.1	1005.82	-29773.3	0.000000	0.000000	7.234476	421.148	NaN	0.000000	0.001755	0.001668	28.0821	90.647	0.001731	52362.9	3.561021	-7.453958	419.04	1.215996	0.092054	0.091781	421.148	52362.9	0.086022	0.235301	1789.83	98624.5
638	2.000000	1.226600	7.3713e+06	-45189.1	1005.82	-29773.3	0.000000	0.000000	7.248767	517.505	NaN	0.000000	0.001735	0.001652	28.0818	100.441	0.001900	52863.5	1.746467	174.968	510.659	1.226374	0.102385	0.102160	517.505	52863.5	0.095043	0.280629	1844.09	91172.2
638	2.000000	1.229632	7.3713e+06	-45189.1	1005.82	-29773.3	0.000000	0.000000	7.252792	541.667	NaN	0.000000	0.001696	0.001632	28.082	101.787	0.001627	62567.5	1.274821	173.753	533.955	1.229368	0.105417	0.105153	541.667	62567.5	0.098924	0.301274	1797.92	104146