File: remote_trans/data/nanoindenter/0828-1/data/Data_2025-08-06,11h17m57s/2025-07-22_16-23-58_1_639.txt
2025-07-22, 16:23:58, 1
Index	Phase	Displacement	Time	Pos X	Pos Y	Pos Z	Rot A	Rot B	Piezo Z	Force A	Force B	Gripper	Voltage A	Voltage B	Temperature	Amplitude force	Amplitude pos	Stiffness	Phase shift	Phase excitation	Force A raw	Displacement raw	HMax	HMax raw	Real Force	Real Stiffness	Contact Depth	Area	Hardness	Reduced Mod.
[#]	[#]	[um]	[s]	[um]	[um]	[um]	[m°]	[m°]	[um]	[uN]	[uN]	[V]	[V]	[V]	[°C]	[uN]	[um]	[N/m]	[°]	[°]	[uN]	[um]	[um]	[um]	[uN]	[N/m]	[um]	[um^2]	[MPa]	[MPa]
639	1.000000	0.002347	7.3713e+06	-45139.1	1005.82	-29773.4	0.000000	0.000000	6.002748	-0.073231	NaN	0.000000	0.001755	0.001702	28.0833	0.069874	0.000936	74.6622	-87.2513	-168.584	-0.080269	0.001118	-1.114095	-1.115324	-0.073231	74.6622	-1.113360	-7.574876E+14	9.667567E-17	NaN
639	1.000000	0.044330	7.3713e+06	-45139.1	1005.82	-29773.4	0.000000	0.000000	6.044734	-0.011595	NaN	0.000000	0.001761	0.001675	28.0817	0.096512	0.002019	47.8062	-169.557	18.2544	-0.005820	0.042998	-1.072112	-1.073445	-0.011595	47.8062	-1.071930	-2.104378E+14	5.510065E-17	NaN
639	1.000000	0.086375	7.3713e+06	-45139.1	1005.82	-29773.4	0.000000	0.000000	6.086780	0.017410	NaN	0.000000	0.001717	0.001717	28.0816	0.032441	0.002071	15.6664	164.318	-162.653	0.034894	0.085014	-1.030067	-1.031428	0.017410	15.6664	-1.030901	-5.910109E+13	-2.945840E-16	NaN
639	1.000000	0.128373	7.3713e+06	-45139.1	1005.82	-29773.4	0.000000	0.000000	6.128776	-0.015431	NaN	0.000000	0.001666	0.001740	28.0819	0.068117	0.001933	35.24	117.962	16.2006	-0.001320	0.127000	-0.988070	-0.989443	-0.015431	35.24	-0.987741	-1.551273E+13	9.947588E-16	NaN
639	1.000000	0.170408	7.3713e+06	-45139.1	1005.82	-29773.4	0.000000	0.000000	6.170814	0.039407	NaN	0.000000	0.001670	0.001702	28.0831	0.052664	0.001973	26.6967	98.9194	-165.671	0.024524	0.169088	-0.946034	-0.947354	0.039407	26.6967	-0.947141	-4.400164E+12	-8.955882E-15	NaN
639	1.000000	0.212395	7.3713e+06	-45139.1	1005.82	-29773.4	0.000000	0.000000	6.212799	0.003964	NaN	0.000000	0.001688	0.001681	28.0829	0.036751	0.001955	18.7955	16.6183	14.9198	0.027842	0.211047	-0.904048	-0.905396	0.003964	18.7955	-0.904206	-1.158490E+12	-3.421611E-15	NaN
639	1.000000	0.254437	7.3713e+06	-45139.1	1005.82	-29773.4	0.000000	0.000000	6.254841	0.001250	NaN	0.000000	0.001643	0.001711	28.083	0.076743	0.002048	37.4766	68.0212	-163.65	0.024770	0.253107	-0.862006	-0.863335	0.001250	37.4766	-0.862031	-3.116078E+11	-4.010073E-15	NaN
639	1.000000	0.296448	7.3713e+06	-45139.1	1005.82	-29773.4	0.000000	0.000000	6.296851	-0.025086	NaN	0.000000	0.001688	0.001702	28.0828	0.061724	0.002101	29.3849	-50.4289	12.3404	-0.051878	0.295124	-0.819994	-0.821318	-0.025086	29.3849	-0.819354	-8.230996E+10	3.047713E-13	NaN
639	1.000000	0.338485	7.3713e+06	-45139.1	1005.82	-29773.4	0.000000	0.000000	6.338887	-0.040295	NaN	0.000000	0.001624	0.001689	28.0816	0.048627	0.001981	24.545	-171.232	-164.837	-0.043183	0.337171	-0.777958	-0.779271	-0.040295	24.545	-0.776726	-2.171410E+10	1.855701E-12	NaN
639	1.000000	0.380485	7.3713e+06	-45139.1	1005.82	-29773.4	0.000000	0.000000	6.380886	-0.067064	NaN	0.000000	0.001642	0.001691	28.0817	0.101794	0.001914	53.1907	94.4964	15.0978	-0.024268	0.379141	-0.735957	-0.737302	-0.067064	53.1907	-0.735012	-5.876301E+9	1.141260E-11	NaN
639	1.000000	0.422500	7.3713e+06	-45139.1	1005.82	-29773.4	0.000000	0.000000	6.422903	-0.010585	NaN	0.000000	0.001712	0.001696	28.0819	0.014998	0.001999	7.501259	-7.070715	-165.048	-0.016030	0.421227	-0.693943	-0.695216	-0.010585	7.501259	-0.692884	-1.564349E+9	6.766302E-12	NaN
639	1.000000	0.464499	7.3713e+06	-45139.1	1005.82	-29773.4	0.000000	0.000000	6.464903	-0.018662	NaN	0.000000	0.001684	0.001695	28.0833	0.008516	0.002057	4.140717	45.8486	16.9858	0.025632	0.463168	-0.651943	-0.653275	-0.018662	4.140717	-0.648563	-3.870191E+8	4.822031E-11	NaN
639	1.000000	0.506525	7.3713e+06	-45139.1	1005.82	-29773.4	0.000000	0.000000	6.506930	0.016922	NaN	0.000000	0.001700	0.001705	28.0835	0.077300	0.002114	36.5589	88.2497	-160.94	-0.011684	0.505252	-0.609917	-0.611190	0.016922	36.5589	-0.610264	-1.152791E+8	-1.467931E-10	NaN
639	1.000000	0.548538	7.3713e+06	-45139.1	1005.82	-29773.4	0.000000	0.000000	6.548941	-0.010282	NaN	0.000000	0.001658	0.001676	28.0837	0.103463	0.002042	50.6784	150.298	16.6676	-0.063124	0.547196	-0.567905	-0.569246	-0.010282	50.6784	-0.567753	-2.989352E+7	3.439608E-10	NaN
639	1.000000	0.590551	7.3713e+06	-45139.1	1005.82	-29773.4	0.000000	0.000000	6.590953	-0.055225	NaN	0.000000	0.001722	0.001662	28.0826	0.084380	0.001875	45.0107	144.238	-166.485	-0.038784	0.589260	-0.525891	-0.527183	-0.055225	45.0107	-0.524971	-7.63329e+06	7.234816E-9	NaN
639	1.000000	0.632610	7.3713e+06	-45139.1	1005.82	-29773.4	0.000000	0.000000	6.633015	0.025055	NaN	0.000000	0.001769	0.001685	28.0824	0.021690	0.001980	10.9553	109.207	12.2274	-0.003936	0.631251	-0.483832	-0.485192	0.025055	10.9553	-0.485547	-2.15351e+06	-1.163467E-8	NaN
639	1.000000	0.674605	7.3713e+06	-45139.1	1005.82	-29773.4	0.000000	0.000000	6.675007	-0.053107	NaN	0.000000	0.001785	0.001681	28.0822	0.037270	0.001874	19.8861	50.9411	-166.856	-0.143185	0.673294	-0.441837	-0.443149	-0.053107	19.8861	-0.439834	-490934	1.081764E-7	NaN
639	1.000000	0.716611	7.3713e+06	-45139.1	1005.82	-29773.4	0.000000	0.000000	6.717015	0.007242	NaN	0.000000	0.001756	0.001686	28.0836	0.020152	0.001986	10.1489	168.08	12.8486	-0.050923	0.715284	-0.399832	-0.401158	0.007242	10.1489	-0.400367	-135277	-5.353373E-8	NaN
639	1.000000	0.758626	7.3713e+06	-45139.1	1005.82	-29773.4	0.000000	0.000000	6.759029	-0.004476	NaN	0.000000	0.001748	0.001679	28.0834	0.068421	0.001963	34.8478	-21.2832	-163.446	-0.017848	0.757331	-0.357817	-0.359112	-0.004476	34.8478	-0.357720	-33027.8	1.355145E-7	NaN
639	1.000000	0.800663	7.3713e+06	-45139.1	1005.82	-29773.4	0.000000	0.000000	6.801067	0.009264	NaN	0.000000	0.001741	0.001673	28.0834	0.063009	0.002043	30.8385	-17.7565	15.2735	0.043044	0.799308	-0.315779	-0.317134	0.009264	30.8385	-0.316005	-8124.04	-1.140357E-6	NaN
639	1.000000	0.842661	7.3713e+06	-45139.1	1005.82	-29773.4	0.000000	0.000000	6.843063	-0.042127	NaN	0.000000	0.001753	0.001675	28.0834	0.071212	0.001970	36.1566	-139.437	-165.741	-0.038463	0.841362	-0.273782	-0.275080	-0.042127	36.1566	-0.272908	-1843.73	2.284898E-5	NaN
639	1.000000	0.884693	7.37131e+06	-45139.1	1005.82	-29773.4	0.000000	0.000000	6.885096	-0.027441	NaN	0.000000	0.001714	0.001702	28.082	0.046055	0.001916	24.0406	-77.4646	17.231	-0.103905	0.883313	-0.231749	-0.233130	-0.027441	24.0406	-0.230893	-413.628	6.634259E-5	NaN
639	1.000000	0.926679	7.37131e+06	-45139.1	1005.82	-29773.4	0.000000	0.000000	6.927082	-0.029149	NaN	0.000000	0.001702	0.001687	28.0821	0.006405	0.002001	3.200500	-142.817	-163.822	0.032411	0.925356	-0.189763	-0.191087	-0.029149	3.200500	-0.182932	-68.4253	0.000426	NaN
639	1.000000	0.968738	7.37131e+06	-45139.1	1005.82	-29773.4	0.000000	0.000000	6.969142	-0.005714	NaN	0.000000	0.001668	0.001716	28.0821	0.106198	0.002012	52.7706	-65.6954	14.3054	-0.006719	0.967357	-0.147704	-0.149085	-0.005714	52.7706	-0.147623	-16.3875	0.000349	NaN
639	1.000000	1.010739	7.37131e+06	-45139.1	1005.82	-29773.4	0.000000	0.000000	7.011143	0.017424	NaN	0.000000	0.001626	0.001714	28.0832	0.045195	0.002105	21.4693	49.0263	-165.573	0.028878	1.009474	-0.105704	-0.106968	0.017424	21.4693	-0.106312	-2.508607	-0.006946	NaN
639	1.000000	1.052752	7.37131e+06	-45139.1	1005.82	-29773.4	0.000000	0.000000	7.053151	-0.100677	NaN	0.000000	0.001693	0.001702	28.0831	0.064490	0.002060	31.3106	1.877589	11.1524	0.015550	1.051385	-0.063691	-0.065057	-0.100677	31.3106	-0.061279	-0.195905	0.513909	NaN
639	1.000000	1.094768	7.37131e+06	-45139.1	1005.82	-29773.4	0.000000	0.000000	7.095171	-0.022897	NaN	0.000000	0.001672	0.001700	28.0832	0.106404	0.001949	54.5908	-77.9358	-167.296	0.016044	1.093423	-0.021675	-0.023020	-0.022897	54.5908	-0.021360	-0.013601	1.683434	NaN
639	2.000000	1.124800	7.37131e+06	-45139.1	1005.82	-29773.4	0.000000	0.000000	7.125895	16.8003	NaN	0.000000	0.001654	0.001711	28.0819	14.8068	0.001816	8152.53	4.509944	7.181837	16.0434	1.124488	0.008358	0.008046	16.8003	8152.53	0.006812	0.005849	2872.35	97392.5
639	2.000000	1.135234	7.37131e+06	-45139.1	1005.82	-29773.4	0.000000	0.000000	7.137430	43.6006	NaN	0.000000	0.001632	0.001683	28.0822	26.7758	0.001879	14251.3	6.124615	-178.273	43.1319	1.134932	0.018791	0.018490	43.6006	14251.3	0.016497	0.017333	2515.43	98898.1
639	2.000000	1.145728	7.37131e+06	-45139.1	1005.82	-29773.4	0.000000	0.000000	7.149100	72.2104	NaN	0.000000	0.001707	0.001733	28.0826	36.337	0.001772	20503.6	5.323609	-0.790898	70.7039	1.145422	0.029286	0.028980	72.2104	20503.6	0.026644	0.034075	2119.17	101481
639	2.000000	1.156147	7.37131e+06	-45139.1	1005.82	-29773.4	0.000000	0.000000	7.161524	120.973	NaN	0.000000	0.001656	0.001671	28.0834	45.558	0.001710	26636.4	5.306336	177.151	117.936	1.155832	0.039705	0.039389	120.973	26636.4	0.036298	0.054812	2207.03	103946
639	2.000000	1.166652	7.37131e+06	-45139.1	1005.82	-29773.4	0.000000	0.000000	7.173872	165.819	NaN	0.000000	0.001668	0.001696	28.0832	54.8244	0.001713	31999.9	1.147496	-1.485662	162.922	1.166412	0.050209	0.049970	165.819	31999.9	0.046323	0.081387	2037.41	102481
639	2.000000	1.177133	7.37131e+06	-45139.1	1005.82	-29773.4	0.000000	0.000000	7.186570	219.755	NaN	0.000000	0.001604	0.001682	28.0836	65.9417	0.001938	34033	9.914485	170.915	216.626	1.176782	0.060690	0.060340	219.755	34033	0.055848	0.111341	1973.71	93185.1
639	2.000000	1.187708	7.37131e+06	-45139.1	1005.82	-29773.4	0.000000	0.000000	7.199862	285.825	NaN	0.000000	0.001621	0.001693	28.0832	74.6952	0.001830	40808.4	4.168169	-5.894238	286.81	1.187494	0.071266	0.071051	285.825	40808.4	0.066013	0.148248	1928.01	96834.1
639	2.000000	1.198071	7.37131e+06	-45139.1	1005.82	-29773.4	0.000000	0.000000	7.213150	356.999	NaN	0.000000	0.001648	0.001669	28.0819	84.3706	0.001844	45750.4	3.368196	173.775	352.666	1.197913	0.081629	0.081471	356.999	45750.4	0.075776	0.188375	1895.15	96306.8
639	2.000000	1.208626	7.37131e+06	-45139.1	1005.82	-29773.4	0.000000	0.000000	7.227360	445.911	NaN	0.000000	0.001680	0.001688	28.0819	92.7612	0.001763	52604.1	4.821331	-7.782235	442.947	1.208270	0.092184	0.091827	445.911	52604.1	0.085826	0.234358	1902.7	99278.1
639	2.000000	1.219029	7.37131e+06	-45139.1	1005.82	-29773.4	0.000000	0.000000	7.241122	527.654	NaN	0.000000	0.001692	0.001716	28.0818	102.607	0.001903	53932	0.493521	175.847	522.455	1.218726	0.102586	0.102283	527.654	53932	0.095248	0.281704	1873.08	92837.5